# Created by:        SpecsLab Prodigy, Version 4.50.2-r79252 
#
# XY-Serializer Export Settings:
#   Comment Prefix:           #
#   Output meta data:         yes
#   Energy Axis:              Binding Energy
#   Count Rate:               Counts per Second
#   Separate Scan Data:       no
#   Separate Channel Data:    no
#   External Channel Data:    yes
#   Transmission Function:    no
#   ErrorBar:                 no
#   Operation Results:        yes
#   Time Zone Format:         UTC
#
# Group:             Spectrum Group 0
#
# Region:            Survey
# Acquisition Date:  10/30/19 22:56:45 UTC
# Analysis Method:   XPS
# Analyzer:          Phoibos
# Analyzer Lens:     MediumArea:1.5kV
# Analyzer Slit:     5:7x20\B:open
# Scan Mode:         FixedAnalyzerTransmission
# Curves/Scan:       1
# Values/Curve:      1201
# Dwell Time:        0.1
# Excitation Energy: 1486.71
# Binding Energy:    1200
# Pass Energy:       50
# Bias Voltage:      90
# Detector Voltage:  1900
# Eff. Workfunction: 4.395
# Source:            Focus
# Comment:           
#
# Cycle: 0
# Number of Scans: 1
#
# Cycle: 0, Curve: 0
# Acquisition Date: 10/30/19 22:56:45 UTC
#
# ColumnLabels: energy counts/s
#
1200  22541.279
1199  22776.537
1198  23554.305
1197  22410.386
1196  22508.064
1195  22816.59
1194  22850.305
1193  22811.974
1192  22520.404
1191  22718.053
1190  22520.996
1189  22974.594
1188  23015.396
1187  22597.062
1186  23274.864
1185  23021.932
1184  22429.153
1183  22651.612
1182  22837.958
1181  23491.201
1180  22943.074
1179  22541.407
1178  22588.379
1177  22869.353
1176  23490.17
1175  23028.122
1174  23181.834
1173  22655.545
1172  22965.733
1171  23069.963
1170  22720.378
1169  22692.164
1168  22670.17
1167  23651.697
1166  23408.078
1165  23353.583
1164  23676.026
1163  22918.676
1162  22663.246
1161  22956.238
1160  22927.817
1159  23040.537
1158  23217.333
1157  23802.736
1156  23590.111
1155  23704.687
1154  23454.96
1153  23225.986
1152  23654.292
1151  23479.234
1150  24053.78
1149  23431.596
1148  23075.996
1147  23567.334
1146  24879.304
1145  24607.042
1144  23716.865
1143  23792.077
1142  24167.316
1141  23471.043
1140  23639.801
1139  23108.494
1138  23935.539
1137  24221.633
1136  23326.515
1135  24159.417
1134  23996.999
1133  23580.262
1132  23804.719
1131  23161.602
1130  23875.876
1129  23989.388
1128  24230.716
1127  23801.682
1126  23979.642
1125  24190.57
1124  23658.668
1123  24318.932
1122  24292.079
1121  23488.047
1120  23756.424
1119  23201.36
1118  24317.185
1117  24315.885
1116  24678.743
1115  23983.338
1114  23551.325
1113  24177.36
1112  23689.262
1111  24660.391
1110  24013.388
1109  23703.743
1108  24112.943
1107  23823.117
1106  23666.046
1105  24754.951
1104  24436.357
1103  24564.413
1102  24348.893
1101  24233.618
1100  23987.366
1099  25209.96
1098  25119.774
1097  24080.712
1096  24899.298
1095  24752.826
1094  24853.649
1093  24807.477
1092  24710.36
1091  24638.51
1090  25658.605
1089  25119.362
1088  24778.395
1087  24163.565
1086  24786.908
1085  25042.994
1084  24471.618
1083  24349.868
1082  23800.427
1081  24991.462
1080  24831.644
1079  24329.262
1078  24896.636
1077  24454.39
1076  23604.541
1075  24869.337
1074  24813.393
1073  26431.056
1072  26675.078
1071  25345.773
1070  24873.91
1069  25566.979
1068  25700.705
1067  24208.124
1066  25439.239
1065  25085.658
1064  24806.29
1063  24672.976
1062  24316.328
1061  24797.689
1060  25253.933
1059  25327.101
1058  25136.368
1057  24496.232
1056  23896.341
1055  23656.073
1054  24622.586
1053  25035.037
1052  24692.952
1051  24333.021
1050  24517.688
1049  24881.27
1048  25865.658
1047  25589.569
1046  26033.186
1045  26548.501
1044  25337.199
1043  25877.974
1042  25694.766
1041  25850.582
1040  25450.994
1039  25164.761
1038  24471.715
1037  24269.655
1036  25302.267
1035  25213.625
1034  25143.55
1033  25079.766
1032  24817.392
1031  24893.708
1030  25439.419
1029  25161.175
1028  25428.362
1027  25352.205
1026  25454.513
1025  25304.64
1024  25738.328
1023  25669.526
1022  25901.395
1021  24284.175
1020  24854.685
1019  25545.306
1018  25552.606
1017  25580.093
1016  25397.015
1015  25102.471
1014  24956.059
1013  24096.571
1012  23578.698
1011  23771.656
1010  24482.103
1009  24491.863
1008  23438.588
1007  24588.769
1006  24692.793
1005  25206.365
1004  26148.099
1003  25623.506
1002  26475.42
1001  27080.507
1000  25522.957
999  24074.583
998  23637.01
997  23790.88
996  23772.582
995  22704.456
994  22245.912
993  21650.431
992  21219.328
991  20537.246
990  20646.263
989  20795.323
988  20573.97
987  20284.123
986  21233.292
985  22119.396
984  23504.052
983  24842.998
982  25438.545
981  27327.283
980  27939.03
979  26320.211
978  23502.199
977  21585.252
976  20533.636
975  20583.059
974  19278.958
973  18710.659
972  17406.491
971  17144.984
970  15730.541
969  15611.803
968  15696.325
967  15814.11
966  14991.286
965  14195.355
964  14667.071
963  14541.818
962  14620.553
961  14814.418
960  15099.157
959  14997.553
958  14527.385
957  15082.121
956  15077.9
955  14338.474
954  14864.203
953  14875.486
952  15252.122
951  14942.474
950  15127.655
949  15462.492
948  14748.121
947  15113.402
946  14877.197
945  15722.284
944  15410.19
943  14896.835
942  14709.244
941  15226.47
940  15260.116
939  15439.769
938  15295.193
937  15973.293
936  15148.513
935  14870.432
934  14904.19
933  15583.669
932  15913.531
931  15524.53
930  16134.442
929  15668.79
928  15667.735
927  16286.785
926  15915.733
925  16156.887
924  15713.525
923  15629.352
922  16032.231
921  16853.769
920  16234.606
919  15642.624
918  16014.346
917  16479.891
916  16528.571
915  15743.396
914  16310.801
913  16217.51
912  15986.325
911  16488.163
910  16163.857
909  16456.452
908  16157.508
907  16214.418
906  17118.097
905  16554.741
904  15555.507
903  15917.122
902  16742.148
901  16081.362
900  16377.926
899  16066.007
898  15871.859
897  16888.186
896  16996.659
895  16613.49
894  16861.896
893  16563.383
892  16434.591
891  16948.1
890  17021.89
889  16609.84
888  16218.213
887  16990.362
886  17283.934
885  17241.542
884  17373.091
883  17104.899
882  17929.9
881  17430.266
880  17771.361
879  17336.945
878  17962.772
877  17353.817
876  17398.55
875  17567.45
874  17397.392
873  17154.458
872  18018.717
871  18130.357
870  17834.002
869  17652.087
868  17378.458
867  17474.548
866  17847.162
865  18005.724
864  18699.684
863  18587.393
862  18036.572
861  18181.928
860  17644.162
859  18504.897
858  18345.093
857  18401.716
856  19073.973
855  18753.794
854  18093.959
853  18170.198
852  18869.466
851  18645.863
850  18500.637
849  19132.847
848  19279.64
847  19493.202
846  18675.71
845  18995.149
844  18631.542
843  18897.607
842  18822.591
841  19491.727
840  19203.495
839  18617.587
838  19341.935
837  18893.897
836  19260.685
835  19140.869
834  19451.199
833  19441.59
832  19472.614
831  19532.117
830  19900.71
829  19632.169
828  19620.881
827  19984.055
826  20067.867
825  19778.655
824  19966.205
823  20004.858
822  20564.924
821  19434.863
820  20054.641
819  19605.947
818  20380.104
817  20382.771
816  19874.156
815  19958.657
814  20510.21
813  19671.865
812  20313.228
811  20639.333
810  20734.08
809  20958.476
808  20831.099
807  20919.609
806  20673.709
805  20732.014
804  20632.761
803  21095.014
802  21616.295
801  21176.263
800  20960.509
799  21432.688
798  20429.965
797  21236.706
796  21813.026
795  21485.66
794  21670.091
793  21445.034
792  21772.81
791  21074.273
790  21486.694
789  21047.539
788  21144.872
787  22003.909
786  21245.626
785  21000.932
784  21260.365
783  22344.487
782  22901.442
781  22815.954
780  21915.796
779  22723.214
778  22603.934
777  22074.163
776  21797.222
775  22165.209
774  22148.369
773  21799.375
772  21840.157
771  22024.644
770  22329.291
769  23004.018
768  22574.74
767  22601.362
766  22675.343
765  22603.73
764  21966.685
763  22121.833
762  23332.965
761  23311.909
760  22728.121
759  22673.982
758  22636.453
757  23378.963
756  22949.612
755  23003.571
754  23640.384
753  23061.847
752  22894.235
751  23571.774
750  22252.323
749  23615.071
748  23783.902
747  23450.096
746  23802.035
745  23922.562
744  23530.842
743  23913.085
742  23977.132
741  24005.382
740  23990.176
739  24158.637
738  23914.569
737  23903.538
736  23861.886
735  23589.254
734  23733.239
733  24905.565
732  24855.979
731  24891.581
730  25332.591
729  24941.474
728  25084.375
727  23986.501
726  24622.341
725  24885.729
724  24854.845
723  24628.465
722  24828.608
721  24934.561
720  24544.648
719  24959.407
718  24564.446
717  25308.575
716  25088.209
715  25225.764
714  26034.143
713  25282.797
712  24886.182
711  25582.474
710  25474.097
709  24763.15
708  25222.657
707  25415.382
706  25607.399
705  25208.516
704  26003.853
703  26181.857
702  26228.247
701  25704.32
700  25402.648
699  25556.577
698  24830.998
697  25626.936
696  25716.939
695  25531.695
694  26240.235
693  27100.55
692  26228.197
691  27294.971
690  26936.812
689  25859.122
688  26545.72
687  26976.194
686  25745.136
685  26723.873
684  26183.064
683  26688.281
682  26904.333
681  26363.581
680  26813.273
679  26520.333
678  27847.459
677  27046.796
676  26724.1
675  27358.323
674  27319.105
673  27237.572
672  26497.044
671  26754.399
670  27605.314
669  27067.924
668  27888.625
667  26976.673
666  27188.423
665  27694.832
664  27558.85
663  28035.615
662  27860.829
661  27979.358
660  27125.095
659  27925.24
658  28400.712
657  29266.684
656  27966.924
655  28072.461
654  28275.325
653  28440.833
652  29039.813
651  28312.508
650  29105.021
649  28321.202
648  28064.039
647  28719.046
646  29033.934
645  28886.6
644  29035.525
643  29479.462
642  30062.453
641  29192.881
640  29264.983
639  28504.513
638  28506.775
637  28184.631
636  29077.684
635  30077.195
634  29957.832
633  29430.196
632  29829.679
631  29251.661
630  29275.882
629  28836.791
628  28787.454
627  29842.705
626  29043.011
625  29707.874
624  29864.837
623  29954.401
622  30313.985
621  29752.851
620  29556.932
619  30163.039
618  29982.833
617  29574.66
616  30134.135
615  29598.242
614  30321.754
613  30658.258
612  29972.967
611  30344.847
610  30090.312
609  30205.352
608  29771.033
607  30230.94
606  29540.846
605  30993.053
604  30506.581
603  30467.176
602  30420.203
601  30871.685
600  30532.949
599  29736.152
598  30149.511
597  30432.597
596  30733.902
595  30182.923
594  31005.036
593  30911.646
592  30169.897
591  30175.782
590  30479.22
589  30257.163
588  30522.368
587  30891.442
586  31203.665
585  31145.468
584  30879.653
583  30669.303
582  30063.954
581  30297.068
580  30320.536
579  30864.524
578  29868.513
577  30385.6
576  30861.226
575  31053.698
574  31033.799
573  30833.536
572  30472.891
571  30067.623
570  28696.742
569  27977.645
568  27665.434
567  27701.828
566  28837.285
565  29516.028
564  29054.057
563  28285.026
562  30788.52
561  31354.587
560  31501.293
559  32412.455
558  33769.047
557  34273.463
556  35327.568
555  34913.198
554  33893
553  31924.652
552  30460.402
551  28774.848
550  27684.395
549  27123.763
548  25946.796
547  23839.014
546  22807.017
545  20328.647
544  17224.941
543  14808.037
542  13537.357
541  12229.899
540  11370.355
539  11326.56
538  11676.824
537  13101.342
536  17280.027
535  44391.894
534  127962.59
533  134639.25
532  49590.126
531  17580.524
530  12235.435
529  11727.163
528  11059.333
527  10926.189
526  10717.393
525  10960.51
524  10381.664
523  10330.081
522  10247.875
521  10466.375
520  10417.815
519  10133.106
518  10425.863
517  10576.888
516  10261.598
515  10496.696
514  10623.985
513  10742.158
512  10542.666
511  10419.995
510  10973.053
509  10653.409
508  10386.196
507  10401.184
506  10206.475
505  10424.494
504  10529.203
503  10258.588
502  10778.248
501  10508.533
500  10904.992
499  11307.704
498  11585.767
497  11774.461
496  10799.753
495  10405.019
494  10670.518
493  10364.817
492  10319.515
491  10207.795
490  9973.1516
489  10333.342
488  10539.268
487  10780.4
486  10520.712
485  10747.128
484  10729.159
483  10772.638
482  10714.434
481  10463.868
480  10006.877
479  10604.35
478  10819.475
477  10398.432
476  10635.471
475  10466.992
474  10429.56
473  10470.006
472  10419.135
471  11167.038
470  10021.474
469  10841.678
468  10834.254
467  10728.369
466  10319.491
465  10730.765
464  11249.414
463  10890.165
462  11031.198
461  11005.337
460  11086.796
459  10813.229
458  10656.17
457  11119.731
456  11018.501
455  11045.171
454  10894.25
453  10784.383
452  11016.756
451  10851.121
450  10780.12
449  10771.848
448  11043.339
447  10983.979
446  11206.196
445  11110.093
444  10450.695
443  10900.948
442  10745.273
441  10904.876
440  11176.436
439  11410.692
438  10987.491
437  11156.013
436  11122.61
435  11334.174
434  11199.765
433  10948.159
432  10783.343
431  11426.048
430  11059.613
429  10974.699
428  11335.343
427  10408.216
426  11350.484
425  11294.312
424  10899.252
423  11026.666
422  11363.343
421  11146.702
420  10921.955
419  11066.687
418  11097.007
417  10985.92
416  11363.751
415  11314.312
414  11588.3
413  11280.83
412  11881.953
411  10950.793
410  10921.775
409  11501.74
408  11526.332
407  11608.948
406  10837.617
405  11230.676
404  11585.719
403  11488.711
402  11915.772
401  12185.462
400  11602.37
399  10854.635
398  10964.283
397  11238.39
396  10942.711
395  11380.638
394  11666.623
393  11366.572
392  10704.749
391  11022.052
390  11066.682
389  11307.58
388  10955.537
387  11686.1
386  11806.916
385  11096.083
384  11215.833
383  11748.656
382  11578.587
381  11246.309
380  11825.365
379  11083.168
378  12192.312
377  11363.374
376  11593.281
375  11994.438
374  11509.597
373  11636.744
372  11162.106
371  11234.049
370  11611.299
369  11200.654
368  11611.683
367  11691.578
366  11843.761
365  11768.109
364  11986.503
363  11941.958
362  11772.142
361  11997.9
360  12102.325
359  11975.221
358  12043.88
357  12017.889
356  12257.178
355  12308.799
354  11643.29
353  12569.223
352  13122.434
351  12748.276
350  12499.155
349  13345.633
348  13708.186
347  13585.584
346  12776.759
345  11954.941
344  12348.314
343  12217.44
342  12243.18
341  12305.134
340  12814.013
339  12891.32
338  12601.893
337  12383.367
336  12774.856
335  12490.272
334  12606.177
333  12780.552
332  12095.565
331  13171.489
330  13483.789
329  13151.844
328  12932.644
327  12871.621
326  13019.612
325  13680.083
324  13087.696
323  12915.928
322  13153.857
321  12960.259
320  12813.23
319  13480.632
318  13475.252
317  13422.386
316  13573.367
315  13270.833
314  13656.894
313  13953.76
312  14072.026
311  14254.657
310  13481.604
309  14022.956
308  14410.591
307  14361.463
306  14714.125
305  14045.457
304  14636.21
303  14201.784
302  14115.517
301  13638.568
300  13142.757
299  12578.203
298  12365.043
297  12548.727
296  12622.316
295  11934.333
294  11754.282
293  11386.677
292  10974.365
291  11912.334
290  13206.92
289  13958.575
288  16348.685
287  24453.8
286  49605.632
285  45690.435
284  18289.492
283  11403.753
282  10793.711
281  10400.146
280  10617.625
279  10254.867
278  11168.869
277  10900.245
276  11239.111
275  10442.304
274  10165.175
273  10673.546
272  10374.927
271  10751.616
270  10838.647
269  10441.296
268  10637.637
267  11001.561
266  10388.413
265  10123.301
264  10642.63
263  10178.479
262  11015.838
261  10443.53
260  10389.602
259  10894.464
258  10852.027
257  10502.422
256  10380.238
255  10825.798
254  10746.755
253  10284.031
252  10532.118
251  10330.101
250  10557.127
249  10590.823
248  10431.385
247  10712.816
246  10660.542
245  10635.003
244  10373.507
243  10203.018
242  9663.729
241  10185.911
240  10754.307
239  10239.018
238  10352.899
237  10869.379
236  10639.647
235  10622.388
234  10580.712
233  11462.831
232  10628.102
231  10850.834
230  10890.31
229  11385.892
228  10986.325
227  10485.996
226  10446.595
225  11085.239
224  11148.586
223  11018.791
222  10593.751
221  11014.382
220  10889.821
219  10719.042
218  11060.41
217  10853.524
216  10379.134
215  10413.383
214  10944.791
213  10788.284
212  11158.371
211  10968.818
210  10707.24
209  10176.225
208  10393.18
207  10850.901
206  10656.2
205  11079.232
204  10857.468
203  10851.138
202  10201.625
201  11115.909
200  11551.476
199  11804.994
198  10788.908
197  11139.404
196  11101.778
195  11157.09
194  11271.321
193  11136.892
192  10488.178
191  10619.043
190  10452.438
189  10772.805
188  10023.302
187  10259.836
186  10158.846
185  10280.798
184  10770.173
183  11211.695
182  11150.304
181  12086.338
180  11991.994
179  11740.979
178  12452.513
177  12139.177
176  11764.685
175  11540.7
174  11868.858
173  11498.873
172  11181.169
171  10901.726
170  11173.06
169  10598.574
168  9830.5014
167  9261.961
166  9060.8726
165  8170.1186
164  7369.7623
163  7312.0039
162  7452.8802
161  7427.8322
160  7382.2298
159  7968.3122
158  9691.2213
157  16066.967
156  27253.995
155  33056.726
154  25841.919
153  16335.6
152  10158.244
151  8342.0507
150  7457.9893
149  7250.7741
148  7411.68
147  7076.819
146  6686.9574
145  6582.9725
144  6699.311
143  6831.2538
142  6562.4886
141  6380.4947
140  6284.7946
139  5967.7846
138  5811.9985
137  6332.6545
136  5848.9853
135  6153.5252
134  6110.1969
133  6541.0825
132  6195.8868
131  6802.2847
130  6363.8325
129  6869.9464
128  6941.2526
127  7430.9742
126  7208.8151
125  7222.6062
124  7527.6872
123  7141.2315
122  6635.9963
121  6198.4568
120  5831.33
119  5779.7752
118  5400.9561
117  4732.1659
116  4392.0447
115  3681.5926
114  3197.4566
113  2713.1012
112  2114.5862
111  2030.1296
110  1948.6775
109  2377.4452
108  2434.3324
107  3029.8883
106  7813.2751
105  25169.072
104  35448.071
103  20863.604
102  8504.2734
101  2811.2027
100  1980.4954
99  2067.7463
98  2075.6337
97  1933.6216
96  1803.5434
95  2072.7831
94  1924.2226
93  1924.1183
92  1743.1712
91  2250.6487
90  2190.0712
89  1929.9497
88  1781.5751
87  1740.6551
86  1929.8712
85  1871.8572
84  1802.9514
83  2006.7625
82  2148.0018
81  2179.5972
80  2218.2419
79  2270.2009
78  2010.1407
77  1992.1309
76  2188.7459
75  2243.1355
74  2238.2834
73  2088.8594
72  2049.7235
71  2223.1792
70  2163.3287
69  2166.3159
68  2016.6481
67  2079.1105
66  1894.8493
65  1887.762
64  2418.2603
63  2043.6038
62  2131.2514
61  2217.6056
60  2047.079
59  1841.6979
58  1848.3851
57  2134.0178
56  1970.8275
55  2073.4902
54  2260.53
53  2301.3647
52  2374.4596
51  2414.3356
50  2388.7614
49  2308.8027
48  2308.4129
47  2242.8811
46  2274.7396
45  2169.0307
44  2023.9198
43  2061.6322
42  1801.4961
41  1749.889
40  1728.1411
39  1654.7666
38  1579.2738
37  1400.052
36  1582.0798
35  1450.7247
34  1510.5255
33  1750.5734
32  1766.1628
31  1943.2857
30  2143.9464
29  2493.7155
